SpectraSuite Data File
++++++++++++++++++++++++++++++++++++
Date: Sun Jan 06 01:07:16 CET 1980
User: Studenti
Dark Spectrum Present: Yes
Reference Spectrum Present: Yes
Number of Sampled Component Spectra: 1
Spectrometers: S13335
Integration Time (usec): 1000000 (S13335)
Spectra Averaged: 1 (S13335)
Boxcar Smoothing: 0 (S13335)
Correct for Electrical Dark: No (S13335)
Strobe/Lamp Enabled: No (S13335)
Correct for Detector Non-linearity: No (S13335)
Correct for Stray Light: No (S13335)
Number of Pixels in Processed Spectrum: 1024
>>>>>Begin Processed Spectral Data<<<<<
336.29	7.00
336.74	19.00
337.20	-3.00
337.65	17.00
338.11	18.00
338.57	11.00
339.02	4.00
339.48	10.00
339.94	8.00
340.39	16.00
340.85	17.00
341.31	16.00
341.76	13.00
342.22	12.00
342.68	9.00
343.13	14.00
343.59	17.00
344.05	22.00
344.50	11.00
344.96	17.00
345.42	15.00
345.87	6.00
346.33	12.00
346.79	15.00
347.24	16.00
347.70	14.00
348.16	5.00
348.62	6.00
349.07	6.00
349.53	12.00
349.99	11.00
350.44	22.00
350.90	14.00
351.36	11.00
351.82	-7.00
352.27	12.00
352.73	10.00
353.19	27.00
353.64	8.00
354.10	12.00
354.56	10.00
355.02	18.00
355.47	18.00
355.93	8.00
356.39	4.00
356.85	12.00
357.30	8.00
357.76	13.00
358.22	13.00
358.68	16.00
359.13	16.00
359.59	15.00
360.05	2.00
360.51	1.00
360.96	11.00
361.42	12.00
361.88	11.00
362.34	8.00
362.80	18.00
363.25	6.00
363.71	13.00
364.17	13.00
364.63	6.00
365.09	14.00
365.54	-25.00
366.00	8.00
366.46	12.00
366.92	17.00
367.38	10.00
367.83	14.00
368.29	18.00
368.75	11.00
369.21	8.00
369.67	11.00
370.13	3.00
370.58	11.00
371.04	11.00
371.50	14.00
371.96	-7.00
372.42	7.00
372.88	11.00
373.33	9.00
373.79	9.00
374.25	5.00
374.71	18.00
375.17	12.00
375.63	11.00
376.09	7.00
376.54	10.00
377.00	13.00
377.46	10.00
377.92	2.00
378.38	2.00
378.84	9.00
379.30	14.00
379.76	4.00
380.21	2.00
380.67	14.00
381.13	8.00
381.59	12.00
382.05	16.00
382.51	6.00
382.97	5.00
383.43	6.00
383.89	7.00
384.34	4.00
384.80	8.00
385.26	7.00
385.72	13.00
386.18	16.00
386.64	18.00
387.10	11.00
387.56	11.00
388.02	5.00
388.48	6.00
388.94	4.00
389.40	1.00
389.86	11.00
390.32	12.00
390.78	7.00
391.23	13.00
391.69	6.00
392.15	7.00
392.61	9.00
393.07	11.00
393.53	16.00
393.99	4.00
394.45	9.00
394.91	-1.00
395.37	14.00
395.83	-3.00
396.29	3.00
396.75	11.00
397.21	10.00
397.67	6.00
398.13	8.00
398.59	13.00
399.05	13.00
399.51	9.00
399.97	2.00
400.43	14.00
400.89	11.00
401.35	12.00
401.81	16.00
402.27	14.00
402.73	12.00
403.19	6.00
403.65	11.00
404.11	14.00
404.57	9.00
405.03	-2.00
405.49	5.00
405.95	10.00
406.41	4.00
406.87	12.00
407.33	9.00
407.79	9.00
408.25	8.00
408.71	-2.00
409.17	6.00
409.63	13.00
410.10	18.00
410.56	10.00
411.02	3.00
411.48	7.00
411.94	6.00
412.40	1.00
412.86	10.00
413.32	10.00
413.78	7.00
414.24	2.00
414.70	7.00
415.16	9.00
415.62	4.00
416.08	11.00
416.54	9.00
417.01	5.00
417.47	9.00
417.93	11.00
418.39	14.00
418.85	2.00
419.31	5.00
419.77	12.00
420.23	16.00
420.69	6.00
421.15	6.00
421.62	8.00
422.08	11.00
422.54	9.00
423.00	5.00
423.46	7.00
423.92	11.00
424.38	15.00
424.84	6.00
425.31	13.00
425.77	11.00
426.23	5.00
426.69	3.00
427.15	7.00
427.61	-35.00
428.07	13.00
428.54	7.00
429.00	10.00
429.46	9.00
429.92	13.00
430.38	7.00
430.84	10.00
431.31	3.00
431.77	2.00
432.23	7.00
432.69	5.00
433.15	6.00
433.61	14.00
434.08	6.00
434.54	17.00
435.00	16.00
435.46	8.00
435.92	16.00
436.38	0.00
436.85	6.00
437.31	2.00
437.77	10.00
438.23	8.00
438.69	15.00
439.16	6.00
439.62	15.00
440.08	13.00
440.54	6.00
441.00	15.00
441.47	3.00
441.93	13.00
442.39	6.00
442.85	9.00
443.32	18.00
443.78	2.00
444.24	11.00
444.70	16.00
445.16	4.00
445.63	12.00
446.09	14.00
446.55	12.00
447.01	6.00
447.48	6.00
447.94	10.00
448.40	16.00
448.86	13.00
449.33	12.00
449.79	11.00
450.25	6.00
450.71	0.00
451.18	15.00
451.64	14.00
452.10	16.00
452.56	9.00
453.03	8.00
453.49	12.00
453.95	1.00
454.42	12.00
454.88	10.00
455.34	11.00
455.80	2.00
456.27	14.00
456.73	13.00
457.19	10.00
457.66	7.00
458.12	7.00
458.58	10.00
459.04	-1.00
459.51	6.00
459.97	4.00
460.43	13.00
460.90	2.00
461.36	3.00
461.82	6.00
462.29	8.00
462.75	4.00
463.21	8.00
463.68	3.00
464.14	12.00
464.60	13.00
465.07	10.00
465.53	5.00
465.99	8.00
466.46	11.00
466.92	9.00
467.38	13.00
467.85	13.00
468.31	9.00
468.77	4.00
469.24	12.00
469.70	13.00
470.16	10.00
470.63	24.00
471.09	6.00
471.55	8.00
472.02	10.00
472.48	10.00
472.95	15.00
473.41	7.00
473.87	13.00
474.34	12.00
474.80	6.00
475.26	9.00
475.73	6.00
476.19	11.00
476.66	13.00
477.12	11.00
477.58	12.00
478.05	8.00
478.51	12.00
478.97	11.00
479.44	13.00
479.90	3.00
480.37	16.00
480.83	7.00
481.29	13.00
481.76	7.00
482.22	10.00
482.69	6.00
483.15	3.00
483.62	4.00
484.08	10.00
484.54	18.00
485.01	13.00
485.47	7.00
485.94	-1.00
486.40	1.00
486.86	17.00
487.33	3.00
487.79	3.00
488.26	6.00
488.72	10.00
489.19	15.00
489.65	16.00
490.12	9.00
490.58	-2.00
491.04	3.00
491.51	17.00
491.97	11.00
492.44	12.00
492.90	6.00
493.37	-8.00
493.83	8.00
494.30	10.00
494.76	7.00
495.23	9.00
495.69	7.00
496.16	11.00
496.62	16.00
497.08	8.00
497.55	15.00
498.01	11.00
498.48	-11.00
498.94	19.00
499.41	12.00
499.87	4.00
500.34	14.00
500.80	21.00
501.27	13.00
501.73	11.00
502.20	15.00
502.66	-4.00
503.13	19.00
503.59	9.00
504.06	8.00
504.52	10.00
504.99	14.00
505.45	14.00
505.92	7.00
506.38	8.00
506.85	7.00
507.31	13.00
507.78	20.00
508.24	18.00
508.71	-30.00
509.18	11.00
509.64	11.00
510.11	14.00
510.57	12.00
511.04	9.00
511.50	7.00
511.97	23.00
512.43	15.00
512.90	9.00
513.36	6.00
513.83	12.00
514.29	19.00
514.76	8.00
515.23	4.00
515.69	9.00
516.16	-5.00
516.62	16.00
517.09	12.00
517.55	2.00
518.02	13.00
518.48	15.00
518.95	5.00
519.42	18.00
519.88	7.00
520.35	12.00
520.81	10.00
521.28	12.00
521.74	11.00
522.21	14.00
522.68	10.00
523.14	22.00
523.61	12.00
524.07	6.00
524.54	10.00
525.01	7.00
525.47	21.00
525.94	16.00
526.40	8.00
526.87	11.00
527.34	13.00
527.80	14.00
528.27	10.00
528.73	6.00
529.20	-1.00
529.67	8.00
530.13	8.00
530.60	19.00
531.06	6.00
531.53	-2.00
532.00	13.00
532.46	13.00
532.93	1.00
533.40	5.00
533.86	12.00
534.33	20.00
534.79	18.00
535.26	17.00
535.73	13.00
536.19	22.00
536.66	20.00
537.13	21.00
537.59	12.00
538.06	9.00
538.53	18.00
538.99	19.00
539.46	17.00
539.93	18.00
540.39	9.00
540.86	5.00
541.33	15.00
541.79	10.00
542.26	10.00
542.73	7.00
543.19	7.00
543.66	4.00
544.13	-2.00
544.59	0.00
545.06	-1.00
545.53	11.00
545.99	14.00
546.46	10.00
546.93	13.00
547.39	7.00
547.86	11.00
548.33	16.00
548.79	7.00
549.26	18.00
549.73	14.00
550.19	15.00
550.66	8.00
551.13	1.00
551.59	14.00
552.06	19.00
552.53	11.00
553.00	18.00
553.46	12.00
553.93	13.00
554.40	11.00
554.86	16.00
555.33	24.00
555.80	19.00
556.27	10.00
556.73	20.00
557.20	29.00
557.67	23.00
558.13	10.00
558.60	25.00
559.07	27.00
559.54	27.00
560.00	17.00
560.47	15.00
560.94	28.00
561.40	36.00
561.87	32.00
562.34	23.00
562.81	36.00
563.27	29.00
563.74	36.00
564.21	23.00
564.68	32.00
565.14	36.00
565.61	19.00
566.08	27.00
566.55	30.00
567.01	39.00
567.48	41.00
567.95	46.00
568.42	38.00
568.88	50.00
569.35	48.00
569.82	61.00
570.29	68.00
570.76	59.00
571.22	61.00
571.69	57.00
572.16	70.00
572.63	76.00
573.09	68.00
573.56	81.00
574.03	88.00
574.50	97.00
574.97	100.00
575.43	93.00
575.90	102.00
576.37	114.00
576.84	126.00
577.30	126.00
577.77	136.00
578.24	153.00
578.71	150.00
579.18	169.00
579.64	176.00
580.11	178.00
580.58	193.00
581.05	206.00
581.52	221.00
581.98	239.00
582.45	240.00
582.92	265.00
583.39	275.00
583.86	307.00
584.33	322.00
584.79	333.00
585.26	359.00
585.73	377.00
586.20	411.00
586.67	432.00
587.13	463.00
587.60	497.00
588.07	482.00
588.54	543.00
589.01	586.00
589.48	616.00
589.94	639.00
590.41	649.00
590.88	714.00
591.35	763.00
591.82	789.00
592.29	862.00
592.75	911.00
593.22	962.00
593.69	1016.00
594.16	1081.00
594.63	1155.00
595.10	1255.00
595.57	1327.00
596.03	1398.00
596.50	1506.00
596.97	1641.00
597.44	1750.00
597.91	1857.00
598.38	2013.00
598.85	2164.00
599.31	2294.00
599.78	2448.00
600.25	2629.00
600.72	2775.00
601.19	2969.00
601.66	3120.00
602.13	3402.00
602.60	3475.00
603.06	3787.00
603.53	3880.00
604.00	4107.00
604.47	4412.00
604.94	4499.00
605.41	4770.00
605.88	4868.00
606.35	5103.00
606.82	5238.00
607.28	5486.00
607.75	5685.00
608.22	5819.00
608.69	5990.00
609.16	6145.00
609.63	6274.00
610.10	6601.00
610.57	6767.00
611.04	6918.00
611.51	7091.00
611.97	7193.00
612.44	7387.00
612.91	7492.00
613.38	7774.00
613.85	7867.00
614.32	8081.00
614.79	8098.00
615.26	8483.00
615.73	8483.00
616.20	8761.00
616.67	8721.00
617.13	8897.00
617.60	9036.00
618.07	9085.00
618.54	9172.00
619.01	9328.00
619.48	9581.00
619.95	9627.00
620.42	9849.00
620.89	9905.00
621.36	10014.00
621.83	10035.00
622.30	10063.00
622.77	10103.00
623.24	10204.00
623.71	10367.00
624.17	10294.00
624.64	10267.00
625.11	10190.00
625.58	10320.00
626.05	10220.00
626.52	10080.00
626.99	10153.00
627.46	10050.00
627.93	9961.00
628.40	9813.00
628.87	9817.00
629.34	9541.00
629.81	9459.00
630.28	9410.00
630.75	9036.00
631.22	9050.00
631.69	8866.00
632.16	8714.00
632.63	8624.00
633.10	8257.00
633.57	7991.00
634.04	7912.00
634.51	7761.00
634.98	7578.00
635.45	7345.00
635.92	7078.00
636.39	7029.00
636.86	6741.00
637.32	6631.00
637.79	6291.00
638.26	6223.00
638.73	6134.00
639.20	5895.00
639.67	5772.00
640.14	5670.00
640.61	5433.00
641.08	5364.00
641.55	5116.00
642.02	5063.00
642.49	4931.00
642.96	4783.00
643.43	4718.00
643.90	4636.00
644.37	4576.00
644.84	4448.00
645.31	4424.00
645.78	4269.00
646.25	4120.00
646.72	4118.00
647.19	3995.00
647.66	3997.00
648.13	3837.00
648.60	3759.00
649.07	3742.00
649.55	3654.00
650.02	3555.00
650.49	3488.00
650.96	3355.00
651.43	3305.00
651.90	3166.00
652.37	3104.00
652.84	3041.00
653.31	3017.00
653.78	2907.00
654.25	2732.00
654.72	2751.00
655.19	2628.00
655.66	2559.00
656.13	2489.00
656.60	2385.00
657.07	2308.00
657.54	2268.00
658.01	2153.00
658.48	2115.00
658.95	2051.00
659.42	1948.00
659.89	1905.00
660.36	1819.00
660.83	1795.00
661.30	1698.00
661.77	1667.00
662.24	1597.00
662.71	1527.00
663.19	1453.00
663.66	1441.00
664.13	1371.00
664.60	1318.00
665.07	1273.00
665.54	1253.00
666.01	1200.00
666.48	1166.00
666.95	1130.00
667.42	1072.00
667.89	1066.00
668.36	1010.00
668.83	1002.00
669.30	962.00
669.77	925.00
670.24	897.00
670.72	884.00
671.19	858.00
671.66	833.00
672.13	814.00
672.60	783.00
673.07	775.00
673.54	746.00
674.01	734.00
674.48	703.00
674.95	693.00
675.42	689.00
675.89	648.00
676.37	653.00
676.84	615.00
677.31	598.00
677.78	563.00
678.25	572.00
678.72	546.00
679.19	534.00
679.66	515.00
680.13	488.00
680.60	494.00
681.07	471.00
681.55	459.00
682.02	440.00
682.49	418.00
682.96	417.00
683.43	402.00
683.90	376.00
684.37	378.00
684.84	364.00
685.31	361.00
685.79	341.00
686.26	339.00
686.73	321.00
687.20	317.00
687.67	303.00
688.14	296.00
688.61	275.00
689.08	278.00
689.55	259.00
690.03	253.00
690.50	244.00
690.97	248.00
691.44	245.00
691.91	234.00
692.38	220.00
692.85	214.00
693.32	211.00
693.80	205.00
694.27	199.00
694.74	188.00
695.21	178.00
695.68	177.00
696.15	168.00
696.62	155.00
697.09	138.00
697.57	153.00
698.04	147.00
698.51	147.00
698.98	146.00
699.45	144.00
699.92	136.00
700.39	120.00
700.87	132.00
701.34	126.00
701.81	130.00
702.28	121.00
702.75	123.00
703.22	111.00
703.69	111.00
704.17	102.00
704.64	107.00
705.11	111.00
705.58	107.00
706.05	108.00
706.52	102.00
707.00	100.00
707.47	90.00
707.94	89.00
708.41	88.00
708.88	93.00
709.35	92.00
709.83	85.00
710.30	86.00
710.77	85.00
711.24	84.00
711.71	76.00
712.18	71.00
712.66	72.00
713.13	77.00
713.60	86.00
714.07	72.00
714.54	64.00
715.01	68.00
715.49	55.00
715.96	64.00
716.43	63.00
716.90	57.00
717.37	56.00
717.84	56.00
718.32	59.00
718.79	53.00
719.26	54.00
719.73	51.00
720.20	43.00
720.68	54.00
721.15	55.00
721.62	55.00
722.09	50.00
722.56	50.00
723.03	46.00
723.51	33.00
723.98	45.00
724.45	46.00
724.92	46.00
725.39	41.00
725.87	53.00
726.34	46.00
726.81	35.00
727.28	38.00
727.75	44.00
728.23	47.00
728.70	49.00
729.17	35.00
729.64	39.00
730.11	39.00
730.59	37.00
731.06	31.00
731.53	30.00
732.00	24.00
732.47	37.00
732.95	27.00
733.42	19.00
733.89	33.00
734.36	29.00
734.84	36.00
735.31	27.00
735.78	27.00
736.25	30.00
736.72	27.00
737.20	35.00
737.67	29.00
738.14	24.00
738.61	19.00
739.08	37.00
739.56	26.00
740.03	25.00
740.50	13.00
740.97	23.00
741.45	22.00
741.92	27.00
742.39	35.00
742.86	26.00
743.34	22.00
743.81	32.00
744.28	29.00
744.75	23.00
745.22	21.00
745.70	29.00
746.17	22.00
746.64	20.00
747.11	25.00
747.59	19.00
748.06	20.00
748.53	25.00
749.00	24.00
749.48	27.00
749.95	15.00
750.42	23.00
750.89	27.00
751.37	23.00
751.84	17.00
752.31	23.00
752.78	23.00
753.25	26.00
753.73	18.00
754.20	25.00
754.67	18.00
755.14	27.00
755.62	16.00
756.09	19.00
756.56	28.00
757.03	24.00
757.51	23.00
757.98	27.00
758.45	22.00
758.92	13.00
759.40	16.00
759.87	19.00
760.34	23.00
760.82	14.00
761.29	16.00
761.76	24.00
762.23	22.00
762.71	19.00
763.18	22.00
763.65	18.00
764.12	21.00
764.60	22.00
765.07	22.00
765.54	21.00
766.01	25.00
766.49	26.00
766.96	18.00
767.43	18.00
767.90	17.00
768.38	21.00
768.85	-1.00
769.32	17.00
769.80	16.00
770.27	22.00
770.74	23.00
771.21	26.00
771.69	21.00
772.16	17.00
772.63	17.00
773.10	5.00
773.58	17.00
774.05	11.00
774.52	24.00
775.00	16.00
775.47	17.00
775.94	16.00
776.41	11.00
776.89	21.00
777.36	22.00
777.83	23.00
778.31	19.00
778.78	11.00
779.25	19.00
779.72	26.00
780.20	18.00
780.67	21.00
781.14	27.00
781.62	30.00
782.09	6.00
782.56	14.00
783.03	20.00
783.51	15.00
783.98	18.00
784.45	21.00
784.93	15.00
785.40	21.00
785.87	13.00
786.34	14.00
786.82	19.00
787.29	11.00
787.76	13.00
788.24	23.00
788.71	13.00
789.18	14.00
789.66	21.00
790.13	15.00
790.60	19.00
791.07	20.00
791.55	19.00
792.02	20.00
792.49	16.00
792.97	17.00
793.44	30.00
793.91	20.00
794.39	13.00
794.86	17.00
795.33	18.00
795.80	15.00
796.28	21.00
796.75	27.00
797.22	17.00
797.70	20.00
798.17	20.00
798.64	17.00
799.12	9.00
799.59	14.00
800.06	14.00
800.54	13.00
801.01	28.00
801.48	13.00
801.96	14.00
802.43	17.00
802.90	16.00
803.37	15.00
803.85	21.00
804.32	15.00
804.79	11.00
805.27	16.00
805.74	20.00
806.21	5.00
806.69	24.00
807.16	17.00
807.63	20.00
808.11	28.00
808.58	20.00
809.05	20.00
809.53	15.00
810.00	9.00
810.47	21.00
810.95	19.00
811.42	23.00
811.89	22.00
812.37	17.00
812.84	16.00
813.31	17.00
813.79	18.00
>>>>>End Processed Spectral Data<<<<<
