SpectraSuite Data File
++++++++++++++++++++++++++++++++++++
Date: Sun Jan 06 01:06:08 CET 1980
User: Studenti
Dark Spectrum Present: Yes
Reference Spectrum Present: Yes
Number of Sampled Component Spectra: 1
Spectrometers: S13335
Integration Time (usec): 1000000 (S13335)
Spectra Averaged: 1 (S13335)
Boxcar Smoothing: 0 (S13335)
Correct for Electrical Dark: No (S13335)
Strobe/Lamp Enabled: No (S13335)
Correct for Detector Non-linearity: No (S13335)
Correct for Stray Light: No (S13335)
Number of Pixels in Processed Spectrum: 1024
>>>>>Begin Processed Spectral Data<<<<<
336.29	13.00
336.74	14.00
337.20	-6.00
337.65	10.00
338.11	16.00
338.57	14.00
339.02	1.00
339.48	8.00
339.94	4.00
340.39	16.00
340.85	15.00
341.31	15.00
341.76	13.00
342.22	10.00
342.68	2.00
343.13	11.00
343.59	13.00
344.05	20.00
344.50	11.00
344.96	15.00
345.42	14.00
345.87	5.00
346.33	10.00
346.79	14.00
347.24	16.00
347.70	10.00
348.16	5.00
348.62	1.00
349.07	8.00
349.53	11.00
349.99	10.00
350.44	17.00
350.90	3.00
351.36	11.00
351.82	-4.00
352.27	13.00
352.73	8.00
353.19	20.00
353.64	8.00
354.10	9.00
354.56	13.00
355.02	16.00
355.47	19.00
355.93	4.00
356.39	6.00
356.85	14.00
357.30	3.00
357.76	14.00
358.22	14.00
358.68	17.00
359.13	15.00
359.59	11.00
360.05	-1.00
360.51	-2.00
360.96	8.00
361.42	12.00
361.88	7.00
362.34	8.00
362.80	14.00
363.25	4.00
363.71	7.00
364.17	11.00
364.63	14.00
365.09	13.00
365.54	-31.00
366.00	6.00
366.46	8.00
366.92	12.00
367.38	11.00
367.83	18.00
368.29	15.00
368.75	15.00
369.21	9.00
369.67	7.00
370.13	6.00
370.58	14.00
371.04	7.00
371.50	12.00
371.96	-7.00
372.42	8.00
372.88	7.00
373.33	7.00
373.79	13.00
374.25	8.00
374.71	19.00
375.17	13.00
375.63	14.00
376.09	9.00
376.54	11.00
377.00	16.00
377.46	6.00
377.92	2.00
378.38	8.00
378.84	10.00
379.30	6.00
379.76	8.00
380.21	7.00
380.67	15.00
381.13	9.00
381.59	10.00
382.05	16.00
382.51	9.00
382.97	9.00
383.43	4.00
383.89	4.00
384.34	1.00
384.80	12.00
385.26	10.00
385.72	17.00
386.18	14.00
386.64	18.00
387.10	10.00
387.56	14.00
388.02	5.00
388.48	4.00
388.94	8.00
389.40	4.00
389.86	10.00
390.32	8.00
390.78	7.00
391.23	19.00
391.69	8.00
392.15	3.00
392.61	14.00
393.07	14.00
393.53	19.00
393.99	9.00
394.45	11.00
394.91	2.00
395.37	12.00
395.83	-1.00
396.29	-2.00
396.75	15.00
397.21	12.00
397.67	10.00
398.13	4.00
398.59	8.00
399.05	13.00
399.51	12.00
399.97	4.00
400.43	16.00
400.89	8.00
401.35	11.00
401.81	16.00
402.27	17.00
402.73	15.00
403.19	2.00
403.65	12.00
404.11	14.00
404.57	11.00
405.03	1.00
405.49	7.00
405.95	5.00
406.41	10.00
406.87	13.00
407.33	8.00
407.79	14.00
408.25	8.00
408.71	-1.00
409.17	14.00
409.63	14.00
410.10	18.00
410.56	12.00
411.02	4.00
411.48	5.00
411.94	3.00
412.40	-1.00
412.86	10.00
413.32	9.00
413.78	8.00
414.24	1.00
414.70	5.00
415.16	10.00
415.62	9.00
416.08	10.00
416.54	9.00
417.01	2.00
417.47	12.00
417.93	15.00
418.39	8.00
418.85	0.00
419.31	5.00
419.77	14.00
420.23	15.00
420.69	5.00
421.15	3.00
421.62	12.00
422.08	16.00
422.54	7.00
423.00	6.00
423.46	10.00
423.92	12.50
424.38	15.00
424.84	7.00
425.31	7.00
425.77	13.00
426.23	9.00
426.69	9.00
427.15	7.00
427.61	-32.00
428.07	7.00
428.54	7.00
429.00	8.00
429.46	6.00
429.92	13.00
430.38	5.00
430.84	9.00
431.31	5.00
431.77	0.00
432.23	5.00
432.69	14.00
433.15	7.00
433.61	8.00
434.08	6.00
434.54	14.00
435.00	16.00
435.46	8.00
435.92	15.00
436.38	5.00
436.85	9.00
437.31	0.00
437.77	10.00
438.23	12.00
438.69	9.00
439.16	2.00
439.62	14.00
440.08	13.00
440.54	6.00
441.00	10.00
441.47	3.00
441.93	15.00
442.39	8.00
442.85	12.00
443.32	14.00
443.78	4.00
444.24	9.00
444.70	10.00
445.16	4.00
445.63	11.00
446.09	9.00
446.55	9.00
447.01	8.00
447.48	11.00
447.94	13.00
448.40	14.00
448.86	10.00
449.33	13.00
449.79	10.00
450.25	8.00
450.71	-1.00
451.18	14.00
451.64	12.00
452.10	10.00
452.56	8.00
453.03	5.00
453.49	16.00
453.95	9.00
454.42	15.00
454.88	6.00
455.34	12.00
455.80	2.00
456.27	14.00
456.73	15.00
457.19	13.00
457.66	10.00
458.12	16.00
458.58	6.00
459.04	-1.00
459.51	-1.00
459.97	4.00
460.43	14.00
460.90	-1.00
461.36	1.00
461.82	7.00
462.29	15.00
462.75	5.00
463.21	3.00
463.68	2.00
464.14	15.00
464.60	16.00
465.07	7.00
465.53	3.00
465.99	9.00
466.46	14.00
466.92	10.00
467.38	14.00
467.85	8.00
468.31	8.00
468.77	9.00
469.24	13.00
469.70	11.00
470.16	10.00
470.63	21.00
471.09	9.00
471.55	13.00
472.02	10.00
472.48	7.00
472.95	11.00
473.41	8.00
473.87	10.00
474.34	11.00
474.80	6.00
475.26	7.00
475.73	7.00
476.19	11.00
476.66	11.00
477.12	7.00
477.58	9.00
478.05	9.00
478.51	7.00
478.97	12.00
479.44	17.00
479.90	1.00
480.37	10.00
480.83	7.00
481.29	12.00
481.76	9.00
482.22	7.00
482.69	5.00
483.15	0.00
483.62	9.00
484.08	9.00
484.54	13.00
485.01	10.00
485.47	2.00
485.94	4.00
486.40	1.00
486.86	11.00
487.33	1.00
487.79	7.00
488.26	8.00
488.72	11.00
489.19	13.00
489.65	13.00
490.12	10.00
490.58	4.00
491.04	-1.00
491.51	15.00
491.97	11.00
492.44	12.00
492.90	7.00
493.37	-8.00
493.83	8.00
494.30	12.00
494.76	4.00
495.23	7.00
495.69	8.00
496.16	9.00
496.62	15.00
497.08	3.00
497.55	15.00
498.01	17.00
498.48	-16.00
498.94	18.00
499.41	9.00
499.87	2.00
500.34	12.00
500.80	23.00
501.27	14.00
501.73	6.00
502.20	15.00
502.66	-5.00
503.13	17.00
503.59	9.00
504.06	4.00
504.52	14.00
504.99	12.00
505.45	12.00
505.92	7.00
506.38	13.00
506.85	11.00
507.31	10.00
507.78	19.00
508.24	13.00
508.71	-33.00
509.18	9.00
509.64	13.00
510.11	14.00
510.57	9.00
511.04	8.00
511.50	5.00
511.97	15.00
512.43	13.00
512.90	8.00
513.36	16.00
513.83	13.00
514.29	14.00
514.76	12.00
515.23	7.00
515.69	11.00
516.16	-6.00
516.62	14.00
517.09	10.00
517.55	6.00
518.02	13.00
518.48	16.00
518.95	4.00
519.42	21.00
519.88	15.00
520.35	9.00
520.81	17.00
521.28	9.00
521.74	6.00
522.21	19.00
522.68	10.00
523.14	20.00
523.61	10.00
524.07	8.00
524.54	9.00
525.01	4.00
525.47	15.00
525.94	11.00
526.40	10.00
526.87	10.00
527.34	15.00
527.80	8.00
528.27	10.00
528.73	4.00
529.20	0.00
529.67	9.00
530.13	3.00
530.60	17.00
531.06	10.00
531.53	-1.00
532.00	12.00
532.46	10.00
532.93	8.00
533.40	0.00
533.86	12.00
534.33	18.00
534.79	16.00
535.26	12.00
535.73	10.00
536.19	18.00
536.66	23.00
537.13	21.00
537.59	13.00
538.06	10.00
538.53	11.00
538.99	11.00
539.46	13.00
539.93	13.00
540.39	4.00
540.86	0.00
541.33	13.00
541.79	10.00
542.26	7.00
542.73	9.00
543.19	7.00
543.66	2.00
544.13	-2.00
544.59	-2.00
545.06	3.00
545.53	12.00
545.99	12.00
546.46	6.00
546.93	6.00
547.39	2.00
547.86	11.00
548.33	13.00
548.79	4.00
549.26	13.00
549.73	12.00
550.19	18.00
550.66	8.00
551.13	-2.00
551.59	14.00
552.06	10.00
552.53	10.00
553.00	12.00
553.46	6.00
553.93	12.00
554.40	8.00
554.86	13.00
555.33	22.00
555.80	14.00
556.27	5.00
556.73	20.00
557.20	20.00
557.67	19.00
558.13	5.00
558.60	19.00
559.07	26.00
559.54	18.00
560.00	12.00
560.47	12.00
560.94	21.00
561.40	25.00
561.87	21.00
562.34	13.00
562.81	25.00
563.27	18.00
563.74	28.00
564.21	16.00
564.68	23.00
565.14	24.00
565.61	8.00
566.08	18.00
566.55	18.00
567.01	26.00
567.48	26.00
567.95	31.00
568.42	24.00
568.88	38.00
569.35	30.00
569.82	37.00
570.29	43.00
570.76	43.00
571.22	45.00
571.69	30.00
572.16	51.00
572.63	45.00
573.09	47.00
573.56	51.00
574.03	59.00
574.50	56.00
574.97	62.00
575.43	54.00
575.90	59.00
576.37	69.00
576.84	77.00
577.30	80.00
577.77	79.00
578.24	90.00
578.71	88.00
579.18	96.00
579.64	105.00
580.11	103.00
580.58	111.00
581.05	123.00
581.52	127.00
581.98	140.00
582.45	137.00
582.92	149.00
583.39	154.00
583.86	178.00
584.33	190.00
584.79	186.00
585.26	196.00
585.73	210.00
586.20	238.00
586.67	246.00
587.13	265.00
587.60	283.00
588.07	274.00
588.54	315.00
589.01	340.00
589.48	353.00
589.94	364.00
590.41	367.00
590.88	409.00
591.35	441.00
591.82	448.00
592.29	499.00
592.75	528.00
593.22	562.00
593.69	585.00
594.16	631.00
594.63	664.00
595.10	723.00
595.57	768.00
596.03	800.00
596.50	874.00
596.97	944.00
597.44	1004.00
597.91	1073.00
598.38	1157.00
598.85	1245.00
599.31	1320.00
599.78	1405.00
600.25	1512.00
600.72	1601.00
601.19	1709.00
601.66	1800.00
602.13	1963.00
602.60	1988.00
603.06	2185.00
603.53	2233.00
604.00	2360.00
604.47	2539.00
604.94	2592.00
605.41	2739.00
605.88	2793.00
606.35	2937.00
606.82	3004.00
607.28	3162.00
607.75	3256.00
608.22	3322.00
608.69	3416.00
609.16	3513.00
609.63	3592.00
610.10	3785.00
610.57	3888.00
611.04	3980.00
611.51	4078.00
611.97	4126.00
612.44	4243.00
612.91	4311.00
613.38	4469.00
613.85	4540.00
614.32	4663.00
614.79	4665.00
615.26	4877.00
615.73	4891.00
616.20	5053.00
616.67	5025.00
617.13	5128.00
617.60	5199.00
618.07	5232.00
618.54	5292.00
619.01	5373.00
619.48	5530.00
619.95	5538.00
620.42	5680.00
620.89	5695.00
621.36	5772.00
621.83	5778.00
622.30	5795.00
622.77	5817.00
623.24	5874.00
623.71	5982.00
624.17	5942.00
624.64	5925.00
625.11	5863.00
625.58	5941.00
626.05	5877.00
626.52	5784.00
626.99	5822.00
627.46	5771.00
627.93	5713.00
628.40	5630.00
628.87	5634.00
629.34	5465.00
629.81	5409.00
630.28	5378.00
630.75	5163.00
631.22	5162.00
631.69	5063.00
632.16	4987.00
632.63	4922.00
633.10	4692.00
633.57	4536.00
634.04	4503.00
634.51	4409.00
634.98	4315.00
635.45	4163.00
635.92	3994.00
636.39	3992.00
636.86	3828.00
637.32	3761.00
637.79	3567.00
638.26	3525.00
638.73	3467.00
639.20	3338.00
639.67	3272.00
640.14	3207.00
640.61	3065.00
641.08	3031.00
641.55	2902.00
642.02	2864.00
642.49	2791.00
642.96	2703.00
643.43	2664.00
643.90	2632.00
644.37	2584.00
644.84	2512.00
645.31	2504.00
645.78	2408.00
646.25	2325.00
646.72	2328.00
647.19	2249.00
647.66	2261.00
648.13	2164.00
648.60	2122.00
649.07	2117.00
649.55	2064.00
650.02	2005.00
650.49	1977.00
650.96	1899.00
651.43	1872.00
651.90	1795.00
652.37	1753.00
652.84	1721.00
653.31	1711.00
653.78	1652.00
654.25	1544.00
654.72	1555.00
655.19	1486.00
655.66	1445.00
656.13	1405.00
656.60	1356.00
657.07	1306.00
657.54	1291.00
658.01	1223.00
658.48	1200.00
658.95	1169.00
659.42	1108.00
659.89	1085.00
660.36	1037.00
660.83	1019.00
661.30	970.00
661.77	948.00
662.24	913.00
662.71	869.00
663.19	832.00
663.66	820.00
664.13	786.00
664.60	751.00
665.07	722.00
665.54	718.00
666.01	687.00
666.48	666.00
666.95	642.00
667.42	615.00
667.89	605.00
668.36	579.00
668.83	575.00
669.30	557.00
669.77	533.00
670.24	510.00
670.72	513.00
671.19	493.00
671.66	476.00
672.13	473.00
672.60	455.00
673.07	451.00
673.54	434.00
674.01	426.00
674.48	411.00
674.95	402.00
675.42	406.00
675.89	377.00
676.37	379.00
676.84	355.00
677.31	345.00
677.78	327.00
678.25	334.00
678.72	315.00
679.19	319.00
679.66	300.00
680.13	283.00
680.60	285.00
681.07	274.00
681.55	262.00
682.02	258.00
682.49	244.00
682.96	246.00
683.43	233.00
683.90	221.00
684.37	224.00
684.84	215.00
685.31	218.00
685.79	205.00
686.26	198.00
686.73	185.00
687.20	191.00
687.67	183.00
688.14	181.00
688.61	151.00
689.08	170.00
689.55	152.00
690.03	147.00
690.50	153.00
690.97	156.00
691.44	144.00
691.91	141.00
692.38	132.00
692.85	134.00
693.32	129.00
693.80	124.00
694.27	123.00
694.74	122.00
695.21	112.00
695.68	105.00
696.15	99.00
696.62	90.00
697.09	83.00
697.57	91.00
698.04	90.00
698.51	86.00
698.98	87.00
699.45	89.00
699.92	83.00
700.39	72.00
700.87	77.00
701.34	80.00
701.81	83.00
702.28	76.00
702.75	75.00
703.22	67.00
703.69	67.00
704.17	61.00
704.64	76.00
705.11	69.00
705.58	59.00
706.05	68.00
706.52	62.00
707.00	61.00
707.47	54.00
707.94	48.00
708.41	49.00
708.88	56.00
709.35	63.00
709.83	55.00
710.30	60.00
710.77	61.00
711.24	56.00
711.71	48.00
712.18	48.00
712.66	50.00
713.13	53.00
713.60	53.00
714.07	44.00
714.54	40.00
715.01	49.00
715.49	35.00
715.96	43.00
716.43	42.00
716.90	35.00
717.37	40.00
717.84	36.00
718.32	41.00
718.79	33.00
719.26	37.00
719.73	37.00
720.20	30.00
720.68	36.00
721.15	35.00
721.62	38.00
722.09	36.00
722.56	30.00
723.03	34.00
723.51	15.00
723.98	32.00
724.45	33.00
724.92	35.00
725.39	27.00
725.87	39.00
726.34	31.00
726.81	23.00
727.28	27.00
727.75	30.00
728.23	35.00
728.70	37.00
729.17	29.00
729.64	28.00
730.11	29.00
730.59	34.00
731.06	25.00
731.53	23.00
732.00	14.00
732.47	25.00
732.95	17.00
733.42	12.00
733.89	18.00
734.36	19.00
734.84	31.00
735.31	23.00
735.78	24.00
736.25	17.00
736.72	18.00
737.20	24.00
737.67	17.00
738.14	15.00
738.61	8.00
739.08	26.00
739.56	21.00
740.03	20.00
740.50	10.00
740.97	17.00
741.45	19.00
741.92	22.00
742.39	29.00
742.86	23.00
743.34	18.00
743.81	24.00
744.28	21.00
744.75	18.00
745.22	19.00
745.70	25.00
746.17	18.00
746.64	17.00
747.11	25.00
747.59	15.00
748.06	10.00
748.53	17.00
749.00	19.00
749.48	22.00
749.95	9.00
750.42	17.00
750.89	17.00
751.37	26.00
751.84	16.00
752.31	12.00
752.78	23.00
753.25	17.00
753.73	19.00
754.20	19.00
754.67	13.00
755.14	24.00
755.62	14.00
756.09	13.00
756.56	16.00
757.03	17.00
757.51	16.00
757.98	22.00
758.45	12.00
758.92	4.00
759.40	12.00
759.87	19.00
760.34	19.00
760.82	10.00
761.29	13.00
761.76	15.00
762.23	20.00
762.71	19.00
763.18	20.00
763.65	15.00
764.12	18.00
764.60	18.00
765.07	21.00
765.54	22.00
766.01	21.00
766.49	18.00
766.96	14.00
767.43	13.00
767.90	19.00
768.38	17.00
768.85	-1.00
769.32	14.00
769.80	12.00
770.27	18.00
770.74	20.00
771.21	23.00
771.69	17.00
772.16	16.00
772.63	16.00
773.10	6.00
773.58	16.00
774.05	7.00
774.52	18.00
775.00	15.00
775.47	12.00
775.94	16.00
776.41	7.00
776.89	16.00
777.36	19.00
777.83	19.00
778.31	14.00
778.78	7.00
779.25	16.00
779.72	19.00
780.20	15.00
780.67	19.00
781.14	21.00
781.62	22.00
782.09	11.00
782.56	8.00
783.03	15.00
783.51	7.00
783.98	12.00
784.45	15.00
784.93	14.00
785.40	19.00
785.87	8.00
786.34	7.00
786.82	22.00
787.29	12.00
787.76	8.00
788.24	19.00
788.71	9.00
789.18	11.00
789.66	17.00
790.13	13.00
790.60	12.00
791.07	18.00
791.55	18.00
792.02	16.00
792.49	15.00
792.97	14.00
793.44	21.00
793.91	17.00
794.39	10.00
794.86	13.00
795.33	19.00
795.80	16.00
796.28	21.00
796.75	27.00
797.22	13.00
797.70	17.00
798.17	22.00
798.64	11.00
799.12	0.00
799.59	11.00
800.06	14.00
800.54	13.00
801.01	28.00
801.48	6.00
801.96	10.00
802.43	13.00
802.90	15.00
803.37	14.00
803.85	14.00
804.32	13.00
804.79	8.00
805.27	15.00
805.74	20.00
806.21	-1.00
806.69	18.00
807.16	14.00
807.63	17.00
808.11	22.00
808.58	10.00
809.05	18.00
809.53	15.00
810.00	8.00
810.47	19.00
810.95	19.00
811.42	16.00
811.89	18.00
812.37	13.00
812.84	22.00
813.31	21.00
813.79	12.00
>>>>>End Processed Spectral Data<<<<<
