SpectraSuite Data File
++++++++++++++++++++++++++++++++++++
Date: Sun Jan 06 01:02:51 CET 1980
User: Studenti
Dark Spectrum Present: Yes
Reference Spectrum Present: Yes
Number of Sampled Component Spectra: 1
Spectrometers: S13335
Integration Time (usec): 1000000 (S13335)
Spectra Averaged: 1 (S13335)
Boxcar Smoothing: 0 (S13335)
Correct for Electrical Dark: No (S13335)
Strobe/Lamp Enabled: No (S13335)
Correct for Detector Non-linearity: No (S13335)
Correct for Stray Light: No (S13335)
Number of Pixels in Processed Spectrum: 1024
>>>>>Begin Processed Spectral Data<<<<<
336.29	3.00
336.74	15.00
337.20	-7.00
337.65	12.00
338.11	15.00
338.57	7.00
339.02	-4.00
339.48	6.00
339.94	2.00
340.39	10.00
340.85	13.00
341.31	12.00
341.76	8.00
342.22	9.00
342.68	6.00
343.13	12.00
343.59	10.00
344.05	13.00
344.50	7.00
344.96	16.00
345.42	9.00
345.87	7.00
346.33	9.00
346.79	13.00
347.24	12.00
347.70	4.00
348.16	1.00
348.62	2.00
349.07	9.00
349.53	5.00
349.99	6.00
350.44	15.00
350.90	7.00
351.36	10.00
351.82	-8.00
352.27	12.00
352.73	3.00
353.19	24.00
353.64	6.00
354.10	9.00
354.56	8.00
355.02	14.00
355.47	14.00
355.93	6.00
356.39	-1.00
356.85	10.00
357.30	5.00
357.76	15.00
358.22	10.00
358.68	14.00
359.13	10.00
359.59	14.00
360.05	1.00
360.51	0.00
360.96	5.00
361.42	7.00
361.88	7.00
362.34	8.00
362.80	10.00
363.25	4.00
363.71	13.00
364.17	12.00
364.63	11.00
365.09	12.00
365.54	-28.00
366.00	6.00
366.46	12.00
366.92	13.00
367.38	6.00
367.83	19.00
368.29	19.00
368.75	8.00
369.21	9.00
369.67	8.00
370.13	10.00
370.58	9.00
371.04	9.00
371.50	12.00
371.96	-5.00
372.42	10.00
372.88	8.00
373.33	3.00
373.79	7.00
374.25	4.00
374.71	16.00
375.17	8.00
375.63	11.00
376.09	5.00
376.54	12.00
377.00	12.00
377.46	3.00
377.92	2.00
378.38	5.00
378.84	2.00
379.30	12.00
379.76	5.00
380.21	-1.00
380.67	13.00
381.13	5.00
381.59	12.00
382.05	10.00
382.51	11.00
382.97	7.00
383.43	6.00
383.89	5.00
384.34	4.00
384.80	11.00
385.26	9.00
385.72	18.00
386.18	16.00
386.64	17.00
387.10	11.00
387.56	9.00
388.02	5.00
388.48	3.00
388.94	5.00
389.40	1.00
389.86	15.00
390.32	11.00
390.78	0.00
391.23	17.00
391.69	7.00
392.15	0.00
392.61	10.00
393.07	8.00
393.53	16.00
393.99	10.00
394.45	11.00
394.91	1.00
395.37	11.00
395.83	-4.00
396.29	1.00
396.75	6.00
397.21	6.00
397.67	0.00
398.13	7.00
398.59	7.00
399.05	16.00
399.51	7.00
399.97	3.00
400.43	14.00
400.89	8.00
401.35	12.00
401.81	15.00
402.27	12.00
402.73	14.00
403.19	8.00
403.65	6.00
404.11	10.00
404.57	13.00
405.03	1.00
405.49	5.00
405.95	5.00
406.41	0.00
406.87	12.00
407.33	6.00
407.79	10.00
408.25	6.00
408.71	-3.00
409.17	7.00
409.63	11.00
410.10	16.00
410.56	8.00
411.02	2.00
411.48	7.00
411.94	3.00
412.40	1.00
412.86	11.00
413.32	5.00
413.78	8.00
414.24	2.00
414.70	4.00
415.16	4.00
415.62	7.00
416.08	9.00
416.54	7.00
417.01	7.00
417.47	7.00
417.93	11.00
418.39	13.00
418.85	2.00
419.31	10.00
419.77	11.00
420.23	13.00
420.69	5.00
421.15	4.00
421.62	9.00
422.08	12.00
422.54	6.00
423.00	4.00
423.46	5.00
423.92	11.50
424.38	18.00
424.84	7.00
425.31	15.00
425.77	10.00
426.23	6.00
426.69	3.00
427.15	7.00
427.61	-32.00
428.07	11.00
428.54	6.00
429.00	7.00
429.46	5.00
429.92	10.00
430.38	7.00
430.84	12.00
431.31	9.00
431.77	-1.00
432.23	5.00
432.69	11.00
433.15	2.00
433.61	11.00
434.08	7.00
434.54	14.00
435.00	12.00
435.46	5.00
435.92	16.00
436.38	4.00
436.85	5.00
437.31	-3.00
437.77	7.00
438.23	13.00
438.69	10.00
439.16	6.00
439.62	15.00
440.08	9.00
440.54	5.00
441.00	11.00
441.47	0.00
441.93	11.00
442.39	4.00
442.85	8.00
443.32	10.00
443.78	2.00
444.24	9.00
444.70	9.00
445.16	4.00
445.63	10.00
446.09	7.00
446.55	13.00
447.01	4.00
447.48	8.00
447.94	14.00
448.40	12.00
448.86	12.00
449.33	14.00
449.79	11.00
450.25	9.00
450.71	1.00
451.18	12.00
451.64	9.00
452.10	10.00
452.56	4.00
453.03	7.00
453.49	15.00
453.95	10.00
454.42	10.00
454.88	9.00
455.34	11.00
455.80	9.00
456.27	13.00
456.73	11.00
457.19	12.00
457.66	6.00
458.12	15.00
458.58	7.00
459.04	-5.00
459.51	6.00
459.97	2.00
460.43	5.00
460.90	1.00
461.36	-2.00
461.82	9.00
462.29	9.00
462.75	6.00
463.21	6.00
463.68	4.00
464.14	15.00
464.60	10.00
465.07	8.00
465.53	4.00
465.99	10.00
466.46	13.00
466.92	12.00
467.38	12.00
467.85	8.00
468.31	8.00
468.77	3.00
469.24	8.00
469.70	13.00
470.16	10.00
470.63	14.00
471.09	9.00
471.55	9.00
472.02	7.00
472.48	6.00
472.95	10.00
473.41	10.00
473.87	10.00
474.34	9.00
474.80	14.00
475.26	2.00
475.73	8.00
476.19	7.00
476.66	17.00
477.12	6.00
477.58	7.00
478.05	6.00
478.51	10.00
478.97	9.00
479.44	15.00
479.90	3.00
480.37	12.00
480.83	6.00
481.29	11.00
481.76	5.00
482.22	2.00
482.69	4.00
483.15	4.00
483.62	7.00
484.08	11.00
484.54	12.00
485.01	8.00
485.47	6.00
485.94	-1.00
486.40	3.00
486.86	13.00
487.33	3.00
487.79	5.00
488.26	-3.00
488.72	11.00
489.19	17.00
489.65	11.00
490.12	5.00
490.58	3.00
491.04	4.00
491.51	17.00
491.97	11.00
492.44	9.00
492.90	3.00
493.37	-6.00
493.83	6.00
494.30	10.00
494.76	5.00
495.23	5.00
495.69	5.00
496.16	8.00
496.62	8.00
497.08	3.00
497.55	11.00
498.01	10.00
498.48	-15.00
498.94	16.00
499.41	10.00
499.87	1.00
500.34	10.00
500.80	19.00
501.27	11.00
501.73	11.00
502.20	7.00
502.66	-5.00
503.13	13.00
503.59	10.00
504.06	7.00
504.52	6.00
504.99	7.00
505.45	11.00
505.92	6.00
506.38	8.00
506.85	3.00
507.31	8.00
507.78	17.00
508.24	14.00
508.71	-29.00
509.18	10.00
509.64	6.00
510.11	12.00
510.57	7.00
511.04	10.00
511.50	6.00
511.97	13.00
512.43	9.00
512.90	6.00
513.36	6.00
513.83	12.00
514.29	14.00
514.76	8.00
515.23	7.00
515.69	9.00
516.16	-7.00
516.62	13.00
517.09	8.00
517.55	2.00
518.02	9.00
518.48	9.00
518.95	4.00
519.42	16.00
519.88	13.00
520.35	4.00
520.81	11.00
521.28	10.00
521.74	12.00
522.21	12.00
522.68	11.00
523.14	20.00
523.61	12.00
524.07	9.00
524.54	9.00
525.01	1.00
525.47	16.00
525.94	10.00
526.40	11.00
526.87	7.00
527.34	8.00
527.80	5.00
528.27	5.00
528.73	5.00
529.20	-1.00
529.67	-1.00
530.13	2.00
530.60	16.00
531.06	3.00
531.53	-1.00
532.00	7.00
532.46	7.00
532.93	1.00
533.40	0.00
533.86	10.00
534.33	14.00
534.79	11.00
535.26	17.00
535.73	11.00
536.19	12.00
536.66	16.00
537.13	18.00
537.59	3.00
538.06	3.00
538.53	13.00
538.99	12.00
539.46	14.00
539.93	12.00
540.39	0.00
540.86	-2.00
541.33	7.00
541.79	6.00
542.26	5.00
542.73	7.00
543.19	4.00
543.66	0.00
544.13	-8.00
544.59	-11.00
545.06	-4.00
545.53	8.00
545.99	9.00
546.46	3.00
546.93	7.00
547.39	0.00
547.86	7.00
548.33	3.00
548.79	-5.00
549.26	9.00
549.73	8.00
550.19	12.00
550.66	3.50
551.13	-5.00
551.59	9.00
552.06	9.00
552.53	3.00
553.00	7.00
553.46	2.00
553.93	6.00
554.40	7.00
554.86	5.00
555.33	12.00
555.80	10.00
556.27	0.00
556.73	11.00
557.20	15.00
557.67	11.00
558.13	-1.00
558.60	12.00
559.07	16.00
559.54	9.00
560.00	7.00
560.47	7.00
560.94	13.00
561.40	14.00
561.87	9.00
562.34	5.00
562.81	16.00
563.27	9.00
563.74	17.00
564.21	5.00
564.68	15.00
565.14	15.00
565.61	-2.00
566.08	6.00
566.55	7.00
567.01	15.00
567.48	15.00
567.95	20.00
568.42	5.00
568.88	11.00
569.35	15.00
569.82	18.00
570.29	25.00
570.76	18.00
571.22	18.00
571.69	5.00
572.16	20.00
572.63	17.00
573.09	13.00
573.56	22.00
574.03	25.00
574.50	21.00
574.97	20.00
575.43	12.00
575.90	18.00
576.37	19.00
576.84	29.00
577.30	20.00
577.77	22.00
578.24	26.00
578.71	18.00
579.18	26.00
579.64	25.00
580.11	27.00
580.58	28.00
581.05	34.00
581.52	30.00
581.98	35.00
582.45	30.00
582.92	34.00
583.39	34.00
583.86	46.00
584.33	44.00
584.79	48.00
585.26	54.00
585.73	47.00
586.20	58.00
586.67	55.00
587.13	66.00
587.60	76.00
588.07	56.00
588.54	83.00
589.01	88.00
589.48	96.00
589.94	93.00
590.41	80.00
590.88	99.00
591.35	112.00
591.82	119.00
592.29	132.00
592.75	141.00
593.22	148.00
593.69	147.00
594.16	166.00
594.63	175.00
595.10	188.00
595.57	196.00
596.03	196.00
596.50	229.00
596.97	244.00
597.44	258.00
597.91	275.00
598.38	298.00
598.85	322.00
599.31	343.00
599.78	354.00
600.25	386.00
600.72	410.00
601.19	439.00
601.66	460.00
602.13	510.00
602.60	497.00
603.06	556.00
603.53	569.00
604.00	593.00
604.47	641.00
604.94	658.00
605.41	689.00
605.88	697.00
606.35	741.00
606.82	747.00
607.28	792.00
607.75	793.00
608.22	794.00
608.69	801.00
609.16	824.00
609.63	851.00
610.10	915.00
610.57	968.00
611.04	991.00
611.51	1016.00
611.97	1025.00
612.44	1059.00
612.91	1077.00
613.38	1109.00
613.85	1140.00
614.32	1177.00
614.79	1172.00
615.26	1221.00
615.73	1224.00
616.20	1277.00
616.67	1259.00
617.13	1292.00
617.60	1300.00
618.07	1308.00
618.54	1322.00
619.01	1351.00
619.48	1387.00
619.95	1387.00
620.42	1426.00
620.89	1425.00
621.36	1445.00
621.83	1450.00
622.30	1455.00
622.77	1453.00
623.24	1474.00
623.71	1503.00
624.17	1492.00
624.64	1490.00
625.11	1476.00
625.58	1490.00
626.05	1476.00
626.52	1456.00
626.99	1464.00
627.46	1445.00
627.93	1434.00
628.40	1413.00
628.87	1416.00
629.34	1374.00
629.81	1352.00
630.28	1355.00
630.75	1302.00
631.22	1308.00
631.69	1272.00
632.16	1260.00
632.63	1239.00
633.10	1177.00
633.57	1139.00
634.04	1126.00
634.51	1114.00
634.98	1089.00
635.45	1052.00
635.92	1012.00
636.39	1005.00
636.86	971.00
637.32	953.00
637.79	899.00
638.26	895.00
638.73	883.00
639.20	850.00
639.67	831.00
640.14	814.00
640.61	781.00
641.08	769.00
641.55	737.00
642.02	729.00
642.49	715.00
642.96	686.00
643.43	670.00
643.90	677.00
644.37	653.00
644.84	636.00
645.31	632.00
645.78	610.00
646.25	587.00
646.72	601.00
647.19	570.00
647.66	575.00
648.13	557.00
648.60	544.00
649.07	542.00
649.55	521.00
650.02	514.00
650.49	508.00
650.96	492.00
651.43	484.00
651.90	457.00
652.37	456.00
652.84	448.00
653.31	451.00
653.78	427.00
654.25	391.00
654.72	397.00
655.19	386.00
655.66	379.00
656.13	364.00
656.60	357.00
657.07	339.00
657.54	334.00
658.01	323.00
658.48	309.00
658.95	299.00
659.42	289.00
659.89	288.00
660.36	272.00
660.83	265.00
661.30	258.00
661.77	250.00
662.24	251.00
662.71	230.00
663.19	224.00
663.66	215.00
664.13	212.00
664.60	201.00
665.07	191.00
665.54	191.00
666.01	190.00
666.48	179.00
666.95	168.00
667.42	165.00
667.89	167.00
668.36	157.00
668.83	156.00
669.30	147.00
669.77	142.00
670.24	137.00
670.72	142.00
671.19	133.00
671.66	129.00
672.13	133.00
672.60	126.00
673.07	123.00
673.54	123.00
674.01	124.00
674.48	118.00
674.95	117.00
675.42	120.00
675.89	107.00
676.37	114.00
676.84	106.00
677.31	103.00
677.78	92.00
678.25	98.00
678.72	93.00
679.19	93.00
679.66	91.00
680.13	79.00
680.60	87.00
681.07	85.00
681.55	73.00
682.02	75.00
682.49	63.00
682.96	73.00
683.43	67.00
683.90	55.00
684.37	65.00
684.84	66.00
685.31	65.00
685.79	63.00
686.26	60.00
686.73	51.00
687.20	65.00
687.67	51.00
688.14	54.00
688.61	41.00
689.08	50.00
689.55	44.00
690.03	43.00
690.50	44.00
690.97	53.00
691.44	51.00
691.91	46.00
692.38	40.00
692.85	42.00
693.32	39.00
693.80	44.00
694.27	43.00
694.74	46.00
695.21	33.00
695.68	34.00
696.15	33.00
696.62	24.00
697.09	19.00
697.57	30.00
698.04	32.00
698.51	29.00
698.98	38.00
699.45	32.00
699.92	30.00
700.39	12.00
700.87	26.00
701.34	27.00
701.81	41.00
702.28	29.00
702.75	30.00
703.22	22.00
703.69	21.00
704.17	19.00
704.64	25.00
705.11	26.00
705.58	31.00
706.05	22.00
706.52	25.00
707.00	24.00
707.47	20.00
707.94	16.00
708.41	24.00
708.88	25.00
709.35	25.00
709.83	19.00
710.30	27.00
710.77	28.00
711.24	26.00
711.71	18.00
712.18	15.00
712.66	18.00
713.13	26.00
713.60	25.00
714.07	17.00
714.54	14.00
715.01	18.00
715.49	8.00
715.96	14.00
716.43	15.00
716.90	11.00
717.37	16.00
717.84	15.00
718.32	19.00
718.79	16.00
719.26	17.00
719.73	19.00
720.20	5.00
720.68	22.00
721.15	20.00
721.62	21.00
722.09	17.00
722.56	15.00
723.03	14.00
723.51	0.00
723.98	22.00
724.45	12.00
724.92	16.00
725.39	10.00
725.87	26.00
726.34	19.00
726.81	13.00
727.28	16.00
727.75	16.00
728.23	22.00
728.70	24.00
729.17	13.00
729.64	16.00
730.11	18.00
730.59	19.00
731.06	10.00
731.53	9.00
732.00	4.00
732.47	16.00
732.95	5.00
733.42	4.00
733.89	12.00
734.36	8.00
734.84	25.00
735.31	12.00
735.78	9.00
736.25	10.00
736.72	9.00
737.20	16.00
737.67	13.00
738.14	11.00
738.61	1.00
739.08	17.00
739.56	10.00
740.03	14.00
740.50	3.00
740.97	8.00
741.45	4.00
741.92	10.00
742.39	18.00
742.86	19.00
743.34	13.00
743.81	17.00
744.28	8.00
744.75	12.00
745.22	9.00
745.70	17.00
746.17	11.00
746.64	13.00
747.11	16.00
747.59	5.00
748.06	6.00
748.53	10.00
749.00	14.00
749.48	13.00
749.95	11.00
750.42	9.00
750.89	14.00
751.37	19.00
751.84	6.00
752.31	9.00
752.78	15.00
753.25	19.00
753.73	12.00
754.20	11.00
754.67	4.00
755.14	13.00
755.62	5.00
756.09	10.00
756.56	14.00
757.03	9.00
757.51	8.00
757.98	18.00
758.45	11.00
758.92	1.00
759.40	2.00
759.87	10.00
760.34	19.00
760.82	4.00
761.29	7.00
761.76	16.00
762.23	10.00
762.71	16.00
763.18	16.00
763.65	16.00
764.12	12.00
764.60	13.00
765.07	16.00
765.54	10.00
766.01	16.00
766.49	16.00
766.96	10.00
767.43	10.00
767.90	13.00
768.38	7.00
768.85	-8.00
769.32	7.00
769.80	10.00
770.27	15.00
770.74	13.00
771.21	17.00
771.69	10.00
772.16	13.00
772.63	7.00
773.10	3.00
773.58	3.00
774.05	2.00
774.52	8.00
775.00	5.00
775.47	7.00
775.94	12.00
776.41	1.00
776.89	13.00
777.36	13.00
777.83	14.00
778.31	8.00
778.78	6.00
779.25	10.00
779.72	14.00
780.20	9.00
780.67	12.00
781.14	16.00
781.62	16.00
782.09	3.00
782.56	4.00
783.03	11.00
783.51	10.00
783.98	9.00
784.45	10.00
784.93	11.00
785.40	15.00
785.87	4.00
786.34	2.00
786.82	14.00
787.29	7.00
787.76	3.00
788.24	16.00
788.71	2.00
789.18	6.00
789.66	17.00
790.13	12.00
790.60	9.00
791.07	15.00
791.55	11.00
792.02	14.00
792.49	12.00
792.97	9.00
793.44	15.00
793.91	16.00
794.39	6.00
794.86	8.00
795.33	8.00
795.80	11.00
796.28	16.00
796.75	22.00
797.22	10.00
797.70	10.00
798.17	13.00
798.64	9.00
799.12	5.00
799.59	8.00
800.06	9.00
800.54	3.00
801.01	21.00
801.48	8.00
801.96	3.00
802.43	8.00
802.90	13.00
803.37	7.00
803.85	13.00
804.32	7.00
804.79	3.00
805.27	14.00
805.74	19.00
806.21	-4.00
806.69	10.00
807.16	9.00
807.63	12.00
808.11	25.00
808.58	4.00
809.05	11.00
809.53	10.00
810.00	2.00
810.47	17.00
810.95	12.00
811.42	14.00
811.89	17.00
812.37	16.00
812.84	16.00
813.31	8.00
813.79	9.00
>>>>>End Processed Spectral Data<<<<<
